#Acq. time (s)=	600
#Accumulations=	2
#Range=	Off
#Autofocus=	Off
#AutoExposure=	Off
#Spike filter=	Multiple accum.
#Delay time (s)=	0
#Binning=	1
#Readout mode=	Signal
#DeNoise=	Off
#ICS correction=	Off
#Dark correction=	Off
#Inst. Process=	Off
#Detector Gain=	Best Dynamic Range
#Detector ADC=	20 kHz       
#Detector temperature (°C)=	-128.42
#Instrument=	LabRAM HR Evol
#Detector=	Synapse/Symphony II
#Objective=	x50_VIS_LWD
#Grating=	1800 (450-850nm)
#ND Filter=	25%
#Laser=	532nm_Edge
#Spectro (cm-¹)=	279.986
#Hole=	150.001
#Range=	Visible
#AFM=	Off
#Collection=	Microscope
#StageXY=	Manual stage
#StageZ=	Marzhauser
#X (µm)=	0
#Y (µm)=	0
#Z (µm)=	524.65
#Full time(mm:ss)=	20:01
#Project=	Caps
#Sample=	Caps
#Site=	Caps
#Title=	CaMn2Bi2_2
#Remark=	
#Date=	01.07.2023 15:06
#End Platform Temp (K)=	179.987
#Polarizer=	44.999526
#Analyzer=	44.999526
#Acquired=	01.07.2023 15:06:21
#AxisType[0]=Intens
#AxisUnit[0]=Cnt/sec
#AxisType[1]=Spectr
#AxisUnit[1]=1/cm
533.589	0.06
533.102	0.045
532.614	0.0533333
532.127	0.0583333
531.64	0.0566667
531.151	0.055
530.665	0.0483333
530.176	0.0516667
529.689	0.0483333
529.2	0.0566667
528.713	0.0483333
528.224	0.05
527.737	0.0616667
527.249	0.0583333
526.762	0.055
526.275	0.055
525.785	0.0566667
525.298	0.0516667
524.809	0.0583333
524.32	0.055
523.833	0.0616667
523.344	0.055
522.857	0.06
522.367	0.0566667
521.88	0.055
521.391	0.0533333
520.904	0.055
520.414	0.0616667
519.927	0.055
519.438	0.0583333
518.948	0.0583333
518.461	0.055
517.971	0.06
517.484	0.055
516.994	0.045
516.505	0.0583333
516.017	0.0566667
515.527	0.06
515.038	0.0566667
514.55	0.0533333
514.061	0.0616667
513.573	0.0616667
513.083	0.0466667
512.593	0.0566667
512.106	0.0583333
511.616	0.0483333
511.126	0.0633333
510.638	0.0533333
510.148	0.055
509.658	0.0566667
509.168	0.055
508.68	0.0533333
508.19	0.0583333
507.7	0.0583333
507.212	0.0566667
506.722	0.0516667
506.232	0.0616667
505.742	0.055
505.254	0.0616667
504.764	0.0516667
504.273	0.0616667
503.783	0.0583333
503.295	0.0533333
502.805	0.06
502.314	0.06
501.824	0.055
501.334	0.05
500.845	0.0533333
500.355	0.0516667
499.864	0.0683333
499.374	0.0583333
498.883	0.0616667
498.395	0.0533333
497.904	0.065
497.414	0.06
496.923	0.0533333
496.433	0.0583333
495.942	0.0666667
495.451	0.055
494.963	0.0583333
494.472	0.0566667
493.981	0.06
493.49	0.0616667
492.999	0.06
492.509	0.0666667
492.018	0.06
491.527	0.0616667
491.036	0.0666667
490.545	0.0616667
490.056	0.0533333
489.565	0.06
489.074	0.07
488.583	0.055
488.092	0.0583333
487.601	0.0616667
487.11	0.0633333
486.618	0.07
486.127	0.06
485.636	0.0616667
485.145	0.0633333
484.654	0.0633333
484.162	0.065
483.671	0.065
483.18	0.065
482.688	0.0666667
482.197	0.06
481.705	0.0583333
481.214	0.0666667
480.722	0.0566667
480.231	0.0783333
479.739	0.06
479.248	0.0616667
478.756	0.0566667
478.265	0.065
477.771	0.065
477.279	0.0666667
476.788	0.0683333
476.296	0.065
475.804	0.0583333
475.312	0.065
474.821	0.0583333
474.329	0.0616667
473.837	0.07
473.345	0.0716667
472.851	0.0716667
472.359	0.075
471.867	0.0833333
471.375	0.0716667
470.883	0.0533333
470.391	0.0783333
469.897	0.0816667
469.405	0.0833333
468.913	0.0816667
468.421	0.0866667
467.929	0.0866667
467.436	0.095
466.942	0.095
466.45	0.095
465.958	0.1
465.465	0.121667
464.971	0.125
464.479	0.103333
463.986	0.116667
463.494	0.116667
463.001	0.111667
462.507	0.123333
462.014	0.106667
461.522	0.0916667
461.027	0.0933333
460.535	0.101667
460.042	0.0866667
459.55	0.0816667
459.055	0.0716667
458.562	0.0683333
458.069	0.0733333
457.575	0.07
457.082	0.07
456.589	0.065
456.094	0.0733333
455.602	0.0683333
455.109	0.0716667
454.614	0.065
454.121	0.0616667
453.628	0.0583333
453.133	0.065
452.64	0.0633333
452.147	0.07
451.652	0.0633333
451.159	0.06
450.664	0.0616667
450.17	0.0583333
449.677	0.07
449.182	0.0633333
448.689	0.0583333
448.194	0.065
447.7	0.0583333
447.207	0.0616667
446.712	0.06
446.218	0.0616667
445.723	0.055
445.23	0.065
444.734	0.0583333
444.241	0.0616667
443.745	0.0583333
443.252	0.065
442.756	0.0633333
442.263	0.06
441.767	0.0666667
441.273	0.065
440.778	0.0583333
440.284	0.0666667
439.788	0.0566667
439.295	0.06
438.799	0.0666667
438.305	0.0716667
437.809	0.055
437.315	0.0683333
436.819	0.065
436.326	0.0533333
435.83	0.0516667
435.334	0.0566667
434.84	0.0733333
434.344	0.0666667
433.85	0.0583333
433.354	0.0616667
432.858	0.06
432.363	0.0616667
431.867	0.0633333
431.373	0.0633333
430.877	0.06
430.381	0.0616667
429.887	0.0583333
429.39	0.065
428.894	0.065
428.4	0.07
427.903	0.0633333
427.407	0.0733333
426.912	0.0616667
426.416	0.06
425.919	0.0616667
425.425	0.0566667
424.928	0.0533333
424.432	0.0566667
423.937	0.0716667
423.441	0.0533333
422.944	0.0616667
422.45	0.0616667
421.953	0.06
421.456	0.0666667
420.959	0.0583333
420.465	0.0716667
419.968	0.06
419.471	0.06
418.974	0.06
418.479	0.0683333
417.982	0.065
417.485	0.0633333
416.989	0.0616667
416.492	0.0633333
415.997	0.0583333
415.5	0.0666667
415.002	0.0633333
414.505	0.065
414.008	0.065
413.513	0.0666667
413.016	0.0583333
412.519	0.0633333
412.022	0.0583333
411.524	0.065
411.027	0.0633333
410.532	0.0633333
410.034	0.0616667
409.537	0.0583333
409.04	0.06
408.542	0.0616667
408.045	0.06
407.547	0.06
407.05	0.0616667
406.552	0.065
406.057	0.065
405.559	0.0666667
405.062	0.065
404.564	0.065
404.066	0.06
403.569	0.07
403.071	0.0683333
402.573	0.0616667
402.075	0.06
401.577	0.065
401.08	0.07
400.582	0.05
400.084	0.0616667
399.586	0.055
399.088	0.0666667
398.59	0.07
398.092	0.0616667
397.594	0.0666667
397.096	0.065
396.598	0.0516667
396.1	0.0666667
395.602	0.06
395.104	0.06
394.605	0.0633333
394.107	0.0683333
393.609	0.07
393.111	0.0666667
392.612	0.065
392.114	0.0583333
391.616	0.0583333
391.117	0.0666667
390.619	0.065
390.119	0.0616667
389.62	0.0616667
389.122	0.075
388.623	0.06
388.125	0.06
387.626	0.0633333
387.128	0.0716667
386.629	0.07
386.128	0.065
385.63	0.06
385.131	0.07
384.632	0.0583333
384.133	0.0616667
383.635	0.0716667
383.136	0.0566667
382.635	0.0666667
382.136	0.0616667
381.637	0.065
381.138	0.0633333
380.639	0.0666667
380.138	0.0616667
379.639	0.0733333
379.14	0.07
378.641	0.0733333
378.142	0.0666667
377.641	0.0683333
377.142	0.06
376.643	0.0633333
376.144	0.0533333
375.642	0.0583333
375.143	0.0616667
374.644	0.0666667
374.145	0.0616667
373.643	0.0633333
373.144	0.0633333
372.644	0.065
372.143	0.0733333
371.644	0.07
371.144	0.0683333
370.643	0.0766667
370.143	0.07
369.644	0.0616667
369.142	0.0716667
368.642	0.0666667
368.143	0.0683333
367.641	0.0683333
367.141	0.0716667
366.642	0.0633333
366.14	0.0583333
365.64	0.0566667
365.14	0.0666667
364.638	0.065
364.139	0.0716667
363.637	0.0583333
363.137	0.0633333
362.637	0.0616667
362.135	0.0683333
361.635	0.075
361.133	0.0716667
360.633	0.0766667
360.133	0.0666667
359.631	0.0666667
359.131	0.0666667
358.628	0.0733333
358.128	0.0716667
357.626	0.075
357.126	0.07
356.623	0.065
356.123	0.08
355.621	0.075
355.12	0.075
354.618	0.07
354.118	0.0833333
353.615	0.0716667
353.115	0.0683333
352.612	0.0716667
352.112	0.0666667
351.609	0.07
351.109	0.07
350.606	0.0733333
350.105	0.0733333
349.603	0.065
349.102	0.0683333
348.599	0.0716667
348.099	0.0666667
347.596	0.0683333
347.093	0.0766667
346.592	0.0783333
346.089	0.0666667
345.589	0.07
345.086	0.06
344.583	0.075
344.082	0.0716667
343.579	0.0683333
343.078	0.0683333
342.575	0.0633333
342.072	0.07
341.57	0.0733333
341.067	0.0816667
340.564	0.065
340.063	0.0683333
339.56	0.0716667
339.056	0.075
338.555	0.0733333
338.052	0.085
337.549	0.0783333
337.047	0.0816667
336.544	0.065
336.04	0.0733333
335.539	0.0783333
335.036	0.0716667
334.532	0.0816667
334.029	0.075
333.527	0.0733333
333.023	0.0766667
332.52	0.0783333
332.016	0.0683333
331.515	0.075
331.011	0.08
330.507	0.0683333
330.003	0.0733333
329.502	0.0733333
328.998	0.065
328.494	0.0783333
327.99	0.0716667
327.488	0.0683333
326.984	0.065
326.48	0.075
325.976	0.0766667
325.472	0.0766667
324.968	0.08
324.466	0.07
323.962	0.07
323.458	0.07
322.954	0.0716667
322.45	0.0766667
321.946	0.0766667
321.444	0.08
320.939	0.0816667
320.435	0.065
319.931	0.07
319.426	0.0766667
318.922	0.0516667
318.418	0.0683333
317.913	0.0666667
317.409	0.075
316.906	0.0616667
316.402	0.075
315.897	0.0683333
315.393	0.0783333
314.888	0.0616667
314.384	0.0716667
313.879	0.065
313.374	0.075
312.87	0.0583333
312.365	0.075
311.86	0.0583333
311.355	0.0783333
310.85	0.08
310.346	0.0716667
309.841	0.0733333
309.336	0.0683333
308.831	0.0683333
308.326	0.0633333
307.821	0.0866667
307.316	0.0683333
306.811	0.0666667
306.306	0.0683333
305.801	0.065
305.296	0.0633333
304.791	0.075
304.285	0.075
303.78	0.085
303.275	0.0733333
302.77	0.0666667
302.264	0.065
301.759	0.07
301.254	0.0783333
300.746	0.0666667
300.241	0.075
299.736	0.08
299.23	0.07
298.725	0.0783333
298.219	0.0716667
297.714	0.0716667
297.208	0.0716667
296.7	0.0733333
296.195	0.075
295.689	0.0733333
295.184	0.0783333
294.678	0.0716667
294.172	0.0666667
293.666	0.0733333
293.159	0.08
292.653	0.07
292.147	0.0616667
291.641	0.0783333
291.135	0.0833333
290.627	0.08
290.121	0.0783333
289.615	0.085
289.109	0.0783333
288.603	0.0716667
288.095	0.08
287.589	0.0783333
287.083	0.0666667
286.577	0.075
286.068	0.0733333
285.562	0.0816667
285.056	0.08
284.55	0.075
284.041	0.07
283.535	0.07
283.029	0.0766667
282.52	0.0783333
282.014	0.07
281.508	0.065
281.001	0.0683333
280.493	0.065
279.986	0.0633333
279.48	0.075
278.971	0.0783333
278.464	0.0816667
277.958	0.085
277.449	0.07
276.942	0.0883333
276.436	0.085
275.927	0.0716667
275.42	0.0766667
274.911	0.08
274.404	0.0783333
273.898	0.0783333
273.389	0.0816667
272.882	0.07
272.375	0.0766667
271.866	0.0816667
271.359	0.0766667
270.85	0.0783333
270.343	0.075
269.834	0.0783333
269.327	0.0766667
268.819	0.0833333
268.31	0.0833333
267.803	0.0866667
267.294	0.0783333
266.787	0.07
266.277	0.0666667
265.77	0.0816667
265.261	0.0883333
264.753	0.0816667
264.244	0.0833333
263.736	0.0833333
263.227	0.0816667
262.719	0.0866667
262.21	0.0733333
261.702	0.0833333
261.193	0.0866667
260.685	0.0783333
260.176	0.09
259.668	0.0866667
259.158	0.0783333
258.651	0.08
258.141	0.0833333
257.633	0.08
257.123	0.085
256.613	0.0866667
256.105	0.0783333
255.596	0.0816667
255.088	0.08
254.578	0.0716667
254.07	0.0833333
253.56	0.0833333
253.05	0.0733333
252.542	0.075
252.032	0.0766667
251.521	0.08
251.013	0.0816667
250.503	0.0783333
249.995	0.0783333
249.485	0.0866667
248.974	0.0866667
248.466	0.0766667
247.956	0.0916667
247.446	0.085
246.937	0.0883333
246.427	0.0866667
245.916	0.0816667
245.408	0.0716667
244.897	0.0766667
244.387	0.0916667
243.876	0.08
243.368	0.085
242.857	0.0633333
242.346	0.0866667
241.838	0.0866667
241.327	0.085
240.816	0.09
240.306	0.0833333
239.797	0.09
239.286	0.0766667
238.775	0.08
238.264	0.0833333
237.756	0.0883333
237.245	0.08
236.734	0.0816667
236.223	0.0833333
235.712	0.0783333
235.203	0.085
234.692	0.0866667
234.181	0.0866667
233.669	0.09
233.158	0.085
232.649	0.0883333
232.138	0.075
231.627	0.0833333
231.115	0.0816667
230.604	0.0783333
230.093	0.0833333
229.581	0.085
229.072	0.0933333
228.561	0.0816667
228.049	0.0766667
227.538	0.0866667
227.026	0.0883333
226.515	0.0783333
226.003	0.0783333
225.492	0.085
224.98	0.0783333
224.471	0.085
223.959	0.0833333
223.447	0.0816667
222.935	0.0866667
222.424	0.0816667
221.912	0.0783333
221.4	0.085
220.888	0.0783333
220.376	0.0783333
219.864	0.0933333
219.353	0.0883333
218.841	0.0866667
218.329	0.085
217.817	0.09
217.305	0.09
216.793	0.0966667
216.28	0.095
215.768	0.085
215.256	0.095
214.744	0.0883333
214.232	0.0966667
213.72	0.0866667
213.207	0.085
212.695	0.0916667
212.183	0.0866667
211.67	0.0866667
211.158	0.09
210.646	0.0933333
210.133	0.09
209.621	0.0966667
209.108	0.0933333
208.596	0.106667
208.081	0.0966667
207.568	0.1
207.056	0.0916667
206.543	0.0883333
206.031	0.0983333
205.518	0.0866667
205.005	0.0933333
204.492	0.0933333
203.98	0.0966667
203.465	0.0816667
202.952	0.085
202.439	0.09
201.926	0.11
201.413	0.0983333
200.9	0.101667
200.387	0.115
199.872	0.113333
199.359	0.106667
198.846	0.0883333
198.333	0.095
197.82	0.0766667
197.305	0.0883333
196.792	0.095
196.278	0.0983333
195.765	0.11
195.252	0.09
194.736	0.0983333
194.223	0.1
193.71	0.085
193.196	0.0916667
192.681	0.106667
192.167	0.095
191.654	0.0933333
191.141	0.0933333
190.625	0.0966667
190.111	0.0983333
189.598	0.0883333
189.082	0.0966667
188.569	0.0966667
188.055	0.0983333
187.541	0.0933333
187.025	0.101667
186.512	0.0933333
185.998	0.085
185.482	0.0816667
184.968	0.0966667
184.454	0.09
183.938	0.103333
183.424	0.0966667
182.91	0.0866667
182.394	0.09
181.88	0.0916667
181.366	0.0933333
180.85	0.0883333
180.336	0.075
179.82	0.0933333
179.306	0.0833333
178.792	0.0916667
178.275	0.0933333
177.761	0.09
177.245	0.095
176.73	0.0983333
176.216	0.09
175.7	0.0966667
175.185	0.09
174.669	0.0833333
174.154	0.0866667
173.638	0.0783333
173.123	0.0883333
172.609	0.0983333
172.092	0.0966667
171.578	0.0983333
171.061	0.105
170.546	0.08
170.03	0.09
169.515	0.1
168.998	0.0833333
168.483	0.09
167.967	0.0816667
167.452	0.0733333
166.935	0.101667
166.42	0.0983333
165.903	0.08
165.388	0.1
164.871	0.0833333
164.354	0.111667
163.839	0.0983333
163.322	0.0916667
162.807	0.0966667
162.29	0.0983333
161.774	0.101667
161.257	0.106667
160.742	0.0983333
160.225	0.103333
159.707	0.12
159.192	0.133333
158.675	0.138333
158.159	0.168333
157.642	0.155
157.125	0.173333
156.609	0.168333
156.092	0.156667
155.574	0.128333
155.059	0.12
154.541	0.113333
154.023	0.115
153.508	0.113333
152.99	0.111667
152.474	0.0983333
151.957	0.101667
151.439	0.0983333
150.921	0.09
150.405	0.0916667
149.887	0.0916667
149.37	0.0883333
148.854	0.101667
148.336	0.0966667
147.818	0.106667
147.302	0.108333
146.784	0.0933333
146.266	0.095
145.748	0.095
145.232	0.0966667
144.713	0.1
144.195	0.11
143.677	0.101667
143.161	0.0966667
142.643	0.1
142.124	0.0983333
141.606	0.116667
141.09	0.111667
140.571	0.11
140.053	0.128333
139.534	0.108333
139.016	0.113333
138.5	0.103333
137.981	0.0916667
137.462	0.095
136.944	0.105
136.425	0.116667
135.907	0.09
135.39	0.103333
134.871	0.105
134.352	0.105
133.834	0.108333
133.315	0.105
132.796	0.11
132.277	0.121667
131.76	0.115
131.242	0.12
130.723	0.106667
130.204	0.12
129.685	0.111667
129.166	0.125
128.647	0.11
128.127	0.106667
127.608	0.113333
127.089	0.0933333
126.57	0.0966667
126.053	0.12
125.534	0.13
125.014	0.145
124.495	0.153333
123.976	0.138333
123.456	0.121667
122.937	0.116667
122.418	0.101667
121.898	0.1
121.379	0.105
120.859	0.115
120.34	0.11
119.82	0.116667
119.301	0.113333
118.781	0.121667
118.261	0.125
117.742	0.121667
117.222	0.123333
116.702	0.138333
116.183	0.138333
115.663	0.128333
115.143	0.116667
114.623	0.108333
114.103	0.116667
113.583	0.115
113.061	0.116667
112.541	0.131667
112.021	0.123333
111.501	0.118333
110.981	0.125
110.461	0.125
109.941	0.138333
109.421	0.178333
108.901	0.211667
108.381	0.203333
107.858	0.231667
107.338	0.233333
106.818	0.211667
106.297	0.203333
105.777	0.23
105.257	0.236667
104.736	0.233333
104.214	0.273333
103.693	0.265
103.173	0.281667
102.652	0.305
102.132	0.333333
101.611	0.383333
101.088	0.416667
100.568	0.403333
100.047	0.406667
99.5265	0.38
99.0058	0.351667
98.4829	0.331667
97.9622	0.33
97.4414	0.285
96.9206	0.288333
96.3997	0.295
95.8767	0.293333
95.3558	0.275
94.8348	0.25
94.3139	0.238333
93.7907	0.275
93.2697	0.301667
92.7486	0.346667
92.2254	0.361667
91.7043	0.328333
91.1831	0.263333
90.662	0.23
90.1386	0.226667
89.6174	0.245
89.0961	0.226667
88.5727	0.243333
88.0514	0.23
87.53	0.236667
87.0065	0.225
86.4851	0.24
85.9637	0.251667
85.4401	0.293333
84.9186	0.32
84.397	0.323333
83.8733	0.291667
83.3518	0.258333
82.8301	0.263333
82.3064	0.27
81.7847	0.253333
81.2609	0.285
80.7391	0.281667
80.2174	0.305
79.6935	0.313333
79.1716	0.361667
78.6477	0.37
78.1258	0.438333
77.6039	0.48
77.0798	0.52
76.5578	0.481667
76.0337	0.478333
75.5117	0.448333
74.9875	0.433333
74.4654	0.431667
73.9412	0.445
73.419	0.433333
72.8969	0.388333
72.3725	0.338333
71.8503	0.303333
71.3259	0.28
70.8036	0.26
70.2792	0.278333
69.7568	0.281667
69.2323	0.285
68.7099	0.26
68.1854	0.246667
67.6629	0.23
67.1383	0.221667
66.6136	0.211667
66.0911	0.188333
65.5664	0.2
65.0437	0.183333
64.519	0.178333
63.9963	0.191667
63.4715	0.206667
62.9488	0.218333
62.4239	0.24
61.8989	0.298333
61.3761	0.326667
60.8512	0.295
60.3283	0.248333
59.8032	0.203333
59.2782	0.19
58.7552	0.183333
58.2301	0.183333
57.7071	0.208333
57.1819	0.32
56.6567	0.418333
56.1336	0.303333
55.6083	0.241667
55.083	0.188333
54.5598	0.201667
54.0344	0.211667
53.509	0.225
52.9858	0.235
52.4603	0.22
51.9348	0.2
51.4115	0.213333
50.8859	0.225
50.3604	0.271667
49.8369	0.23
49.3113	0.2
48.7856	0.216667
48.2621	0.188333
47.7364	0.191667
47.2106	0.2
46.6849	0.198333
46.1612	0.211667
45.6354	0.228333
45.1095	0.225
44.5836	0.215
44.0598	0.196667
43.5339	0.176667
43.0079	0.198333
42.4819	0.218333
41.958	0.201667
41.4319	0.18
40.9058	0.203333
40.3797	0.186667
39.8535	0.22
39.3295	0.223333
38.8033	0.25
38.277	0.26
37.7508	0.233333
37.2245	0.24
36.7003	0.241667
36.1739	0.201667
35.6475	0.196667
35.1211	0.226667
34.5946	0.221667
34.0681	0.23
33.5438	0.213333
33.0172	0.215
32.4907	0.243333
31.9641	0.223333
31.4374	0.241667
30.9108	0.243333
30.3841	0.275
29.8574	0.3
29.3306	0.323333
28.806	0.335
28.2792	0.321667
27.7524	0.311667
27.2255	0.368333
26.6986	0.346667
26.1717	0.323333
25.6447	0.378333
25.1177	0.358333
24.5907	0.346667
24.0637	0.36
23.5366	0.325
23.0095	0.328333
22.4824	0.321667
21.9552	0.346667
21.428	0.37
20.9008	0.355
20.3735	0.33
19.8462	0.416667
19.3189	0.426667
18.7916	0.466667
18.2642	0.42
17.7368	0.405
17.2094	0.43
16.6819	0.428333
16.1544	0.523333
15.6269	0.54
15.0994	0.606667
14.5718	0.686667
