#Acq. time (s)=	600
#Accumulations=	2
#Range=	Off
#Autofocus=	Off
#AutoExposure=	Off
#Spike filter=	Multiple accum.
#Delay time (s)=	0
#Binning=	1
#Readout mode=	Signal
#DeNoise=	Off
#ICS correction=	Off
#Dark correction=	Off
#Inst. Process=	Off
#Detector Gain=	Best Dynamic Range
#Detector ADC=	20 kHz       
#Detector temperature (°C)=	-128.42
#Instrument=	LabRAM HR Evol
#Detector=	Synapse/Symphony II
#Objective=	x50_VIS_LWD
#Grating=	1800 (450-850nm)
#ND Filter=	25%
#Laser=	532nm_Edge
#Spectro (cm-¹)=	279.986
#Hole=	150.001
#Range=	Visible
#AFM=	Off
#Collection=	Microscope
#StageXY=	Manual stage
#StageZ=	Marzhauser
#X (µm)=	0
#Y (µm)=	0
#Z (µm)=	524.65
#Full time(mm:ss)=	20:01
#Project=	Caps
#Sample=	Caps
#Site=	Caps
#Title=	CaMn2Bi2_2
#Remark=	
#Date=	01.07.2023 12:45
#End Platform Temp (K)=	180.001
#Polarizer=	9.999504
#Analyzer=	44.999526
#Acquired=	01.07.2023 12:45:55
#AxisType[0]=Intens
#AxisUnit[0]=Cnt/sec
#AxisType[1]=Spectr
#AxisUnit[1]=1/cm
533.589	0.0516667
533.102	0.0533333
532.614	0.055
532.127	0.0516667
531.64	0.055
531.151	0.045
530.665	0.0566667
530.176	0.05
529.689	0.0516667
529.2	0.0533333
528.713	0.0583333
528.224	0.065
527.737	0.0516667
527.249	0.0583333
526.762	0.0583333
526.275	0.0566667
525.785	0.055
525.298	0.0566667
524.809	0.05
524.32	0.0433333
523.833	0.0516667
523.344	0.0483333
522.857	0.0633333
522.367	0.0583333
521.88	0.0533333
521.391	0.045
520.904	0.0516667
520.414	0.0566667
519.927	0.0433333
519.438	0.055
518.948	0.05
518.461	0.0566667
517.971	0.0533333
517.484	0.0533333
516.994	0.055
516.505	0.0583333
516.017	0.0433333
515.527	0.05
515.038	0.0516667
514.55	0.0566667
514.061	0.0566667
513.573	0.0516667
513.083	0.055
512.593	0.0566667
512.106	0.05
511.616	0.0666667
511.126	0.0566667
510.638	0.0566667
510.148	0.0533333
509.658	0.06
509.168	0.0566667
508.68	0.055
508.19	0.05
507.7	0.0566667
507.212	0.0616667
506.722	0.0683333
506.232	0.0583333
505.742	0.0633333
505.254	0.06
504.764	0.06
504.273	0.0566667
503.783	0.0633333
503.295	0.0583333
502.805	0.0533333
502.314	0.0566667
501.824	0.0533333
501.334	0.0516667
500.845	0.0533333
500.355	0.0566667
499.864	0.06
499.374	0.0483333
498.883	0.0583333
498.395	0.0566667
497.904	0.0583333
497.414	0.0483333
496.923	0.0583333
496.433	0.0666667
495.942	0.0566667
495.451	0.06
494.963	0.0533333
494.472	0.0516667
493.981	0.0566667
493.49	0.055
492.999	0.0616667
492.509	0.0583333
492.018	0.06
491.527	0.05
491.036	0.055
490.545	0.0516667
490.056	0.06
489.565	0.0616667
489.074	0.0583333
488.583	0.0566667
488.092	0.0566667
487.601	0.0583333
487.11	0.0583333
486.618	0.0533333
486.127	0.0533333
485.636	0.06
485.145	0.06
484.654	0.0483333
484.162	0.0533333
483.671	0.0583333
483.18	0.0616667
482.688	0.055
482.197	0.0533333
481.705	0.0566667
481.214	0.055
480.722	0.055
480.231	0.0616667
479.739	0.0583333
479.248	0.0566667
478.756	0.06
478.265	0.0466667
477.771	0.0566667
477.279	0.0583333
476.788	0.06
476.296	0.0533333
475.804	0.0616667
475.312	0.0616667
474.821	0.0483333
474.329	0.0566667
473.837	0.055
473.345	0.0516667
472.851	0.0583333
472.359	0.055
471.867	0.0566667
471.375	0.055
470.883	0.055
470.391	0.0666667
469.897	0.0566667
469.405	0.0533333
468.913	0.0616667
468.421	0.065
467.929	0.05
467.436	0.0616667
466.942	0.0566667
466.45	0.0516667
465.958	0.0566667
465.465	0.055
464.971	0.0516667
464.479	0.0516667
463.986	0.0633333
463.494	0.0566667
463.001	0.0533333
462.507	0.06
462.014	0.0483333
461.522	0.0583333
461.027	0.0583333
460.535	0.0583333
460.042	0.055
459.55	0.0633333
459.055	0.0533333
458.562	0.0616667
458.069	0.06
457.575	0.0666667
457.082	0.0666667
456.589	0.0616667
456.094	0.06
455.602	0.055
455.109	0.0633333
454.614	0.0566667
454.121	0.0533333
453.628	0.0583333
453.133	0.0566667
452.64	0.0533333
452.147	0.055
451.652	0.0616667
451.159	0.0483333
450.664	0.0533333
450.17	0.0583333
449.677	0.06
449.182	0.0566667
448.689	0.0583333
448.194	0.055
447.7	0.06
447.207	0.0616667
446.712	0.06
446.218	0.06
445.723	0.055
445.23	0.0566667
444.734	0.0583333
444.241	0.0633333
443.745	0.0616667
443.252	0.0683333
442.756	0.0533333
442.263	0.0566667
441.767	0.065
441.273	0.0533333
440.778	0.0516667
440.284	0.0533333
439.788	0.0516667
439.295	0.0583333
438.799	0.065
438.305	0.0566667
437.809	0.0583333
437.315	0.0616667
436.819	0.0566667
436.326	0.065
435.83	0.06
435.334	0.0583333
434.84	0.055
434.344	0.0666667
433.85	0.06
433.354	0.0666667
432.858	0.06
432.363	0.06
431.867	0.0583333
431.373	0.0633333
430.877	0.0583333
430.381	0.05
429.887	0.0633333
429.39	0.065
428.894	0.06
428.4	0.0566667
427.903	0.0633333
427.407	0.0683333
426.912	0.0566667
426.416	0.0516667
425.919	0.0583333
425.425	0.07
424.928	0.0566667
424.432	0.055
423.937	0.0616667
423.441	0.0433333
422.944	0.055
422.45	0.0516667
421.953	0.0533333
421.456	0.06
420.959	0.0666667
420.465	0.0666667
419.968	0.06
419.471	0.055
418.974	0.0433333
418.479	0.0666667
417.982	0.06
417.485	0.0633333
416.989	0.0583333
416.492	0.055
415.997	0.065
415.5	0.0666667
415.002	0.0616667
414.505	0.0666667
414.008	0.0483333
413.513	0.0616667
413.016	0.055
412.519	0.0533333
412.022	0.0616667
411.524	0.0683333
411.027	0.0666667
410.532	0.06
410.034	0.0616667
409.537	0.065
409.04	0.0516667
408.542	0.0616667
408.045	0.055
407.547	0.0616667
407.05	0.0566667
406.552	0.06
406.057	0.06
405.559	0.0566667
405.062	0.0566667
404.564	0.0583333
404.066	0.0583333
403.569	0.0616667
403.071	0.0616667
402.573	0.0666667
402.075	0.0666667
401.577	0.0633333
401.08	0.0533333
400.582	0.0566667
400.084	0.05
399.586	0.0566667
399.088	0.06
398.59	0.0666667
398.092	0.06
397.594	0.0583333
397.096	0.0616667
396.598	0.07
396.1	0.065
395.602	0.0616667
395.104	0.0666667
394.605	0.055
394.107	0.0516667
393.609	0.0633333
393.111	0.0533333
392.612	0.06
392.114	0.0533333
391.616	0.0566667
391.117	0.0566667
390.619	0.06
390.119	0.0516667
389.62	0.055
389.122	0.065
388.623	0.0633333
388.125	0.0583333
387.626	0.065
387.128	0.055
386.629	0.0533333
386.128	0.055
385.63	0.0633333
385.131	0.0633333
384.632	0.0633333
384.133	0.055
383.635	0.0633333
383.136	0.0583333
382.635	0.05
382.136	0.0733333
381.637	0.06
381.138	0.0616667
380.639	0.045
380.138	0.06
379.639	0.0566667
379.14	0.0716667
378.641	0.065
378.142	0.055
377.641	0.0566667
377.142	0.0566667
376.643	0.05
376.144	0.06
375.642	0.06
375.143	0.0566667
374.644	0.0566667
374.145	0.045
373.643	0.0633333
373.144	0.06
372.644	0.0616667
372.143	0.0633333
371.644	0.0666667
371.144	0.0683333
370.643	0.0583333
370.143	0.065
369.644	0.0683333
369.142	0.07
368.642	0.0616667
368.143	0.0616667
367.641	0.0683333
367.141	0.05
366.642	0.0633333
366.14	0.06
365.64	0.0683333
365.14	0.0633333
364.638	0.0666667
364.139	0.0633333
363.637	0.0633333
363.137	0.0683333
362.637	0.0633333
362.135	0.065
361.635	0.0683333
361.133	0.065
360.633	0.0683333
360.133	0.06
359.631	0.0566667
359.131	0.06
358.628	0.0733333
358.128	0.06
357.626	0.0566667
357.126	0.0533333
356.623	0.06
356.123	0.0566667
355.621	0.065
355.12	0.07
354.618	0.0633333
354.118	0.0683333
353.615	0.0616667
353.115	0.0583333
352.612	0.065
352.112	0.0733333
351.609	0.06
351.109	0.0666667
350.606	0.07
350.105	0.06
349.603	0.0683333
349.102	0.0616667
348.599	0.0666667
348.099	0.065
347.596	0.075
347.093	0.0683333
346.592	0.0533333
346.089	0.065
345.589	0.0733333
345.086	0.0583333
344.583	0.0666667
344.082	0.0616667
343.579	0.0716667
343.078	0.07
342.575	0.0616667
342.072	0.065
341.57	0.075
341.067	0.065
340.564	0.0633333
340.063	0.0766667
339.56	0.065
339.056	0.065
338.555	0.0783333
338.052	0.0583333
337.549	0.0633333
337.047	0.0716667
336.544	0.0633333
336.04	0.0616667
335.539	0.065
335.036	0.0566667
334.532	0.0683333
334.029	0.07
333.527	0.0633333
333.023	0.0683333
332.52	0.0616667
332.016	0.08
331.515	0.0633333
331.011	0.0716667
330.507	0.065
330.003	0.0683333
329.502	0.065
328.998	0.0633333
328.494	0.0683333
327.99	0.07
327.488	0.0733333
326.984	0.065
326.48	0.0666667
325.976	0.0733333
325.472	0.0666667
324.968	0.0683333
324.466	0.0633333
323.962	0.0733333
323.458	0.065
322.954	0.065
322.45	0.0716667
321.946	0.0633333
321.444	0.0683333
320.939	0.0633333
320.435	0.065
319.931	0.0633333
319.426	0.065
318.922	0.07
318.418	0.0566667
317.913	0.0683333
317.409	0.06
316.906	0.0783333
316.402	0.0733333
315.897	0.0683333
315.393	0.0783333
314.888	0.0583333
314.384	0.0633333
313.879	0.055
313.374	0.0766667
312.87	0.0616667
312.365	0.0733333
311.86	0.0683333
311.355	0.0733333
310.85	0.0683333
310.346	0.065
309.841	0.0733333
309.336	0.07
308.831	0.07
308.326	0.0616667
307.821	0.0683333
307.316	0.0666667
306.811	0.06
306.306	0.0666667
305.801	0.0616667
305.296	0.0716667
304.791	0.0716667
304.285	0.08
303.78	0.0733333
303.275	0.07
302.77	0.0633333
302.264	0.0583333
301.759	0.07
301.254	0.0633333
300.746	0.0733333
300.241	0.07
299.736	0.0766667
299.23	0.0683333
298.725	0.0766667
298.219	0.0683333
297.714	0.0616667
297.208	0.0733333
296.7	0.0666667
296.195	0.0666667
295.689	0.0683333
295.184	0.0716667
294.678	0.0666667
294.172	0.0866667
293.666	0.0733333
293.159	0.075
292.653	0.0633333
292.147	0.0716667
291.641	0.0666667
291.135	0.0683333
290.627	0.06
290.121	0.0683333
289.615	0.0733333
289.109	0.0683333
288.603	0.0716667
288.095	0.07
287.589	0.0633333
287.083	0.0733333
286.577	0.0733333
286.068	0.07
285.562	0.0633333
285.056	0.0783333
284.55	0.0816667
284.041	0.0716667
283.535	0.0683333
283.029	0.06
282.52	0.055
282.014	0.0666667
281.508	0.065
281.001	0.0716667
280.493	0.0666667
279.986	0.0783333
279.48	0.065
278.971	0.08
278.464	0.0583333
277.958	0.075
277.449	0.0716667
276.942	0.07
276.436	0.0733333
275.927	0.07
275.42	0.0766667
274.911	0.0716667
274.404	0.06
273.898	0.0733333
273.389	0.075
272.882	0.0816667
272.375	0.07
271.866	0.0733333
271.359	0.07
270.85	0.0816667
270.343	0.0766667
269.834	0.0816667
269.327	0.0816667
268.819	0.07
268.31	0.0733333
267.803	0.0666667
267.294	0.0633333
266.787	0.0716667
266.277	0.075
265.77	0.0716667
265.261	0.085
264.753	0.0766667
264.244	0.085
263.736	0.0816667
263.227	0.0816667
262.719	0.0816667
262.21	0.075
261.702	0.09
261.193	0.08
260.685	0.0833333
260.176	0.0733333
259.668	0.07
259.158	0.0833333
258.651	0.0766667
258.141	0.0633333
257.633	0.085
257.123	0.0783333
256.613	0.08
256.105	0.0716667
255.596	0.0683333
255.088	0.075
254.578	0.0783333
254.07	0.07
253.56	0.07
253.05	0.0716667
252.542	0.0716667
252.032	0.07
251.521	0.0733333
251.013	0.0733333
250.503	0.07
249.995	0.08
249.485	0.0783333
248.974	0.0683333
248.466	0.0833333
247.956	0.0866667
247.446	0.0816667
246.937	0.0816667
246.427	0.0816667
245.916	0.0733333
245.408	0.0766667
244.897	0.08
244.387	0.0766667
243.876	0.065
243.368	0.0783333
242.857	0.0716667
242.346	0.0733333
241.838	0.07
241.327	0.075
240.816	0.0733333
240.306	0.07
239.797	0.0683333
239.286	0.075
238.775	0.0783333
238.264	0.0833333
237.756	0.0733333
237.245	0.0883333
236.734	0.075
236.223	0.0816667
235.712	0.0966667
235.203	0.08
234.692	0.0883333
234.181	0.0716667
233.669	0.0716667
233.158	0.0833333
232.649	0.0733333
232.138	0.0733333
231.627	0.07
231.115	0.08
230.604	0.0816667
230.093	0.0766667
229.581	0.0816667
229.072	0.0766667
228.561	0.065
228.049	0.0716667
227.538	0.08
227.026	0.0733333
226.515	0.0733333
226.003	0.07
225.492	0.0733333
224.98	0.0633333
224.471	0.0833333
223.959	0.0766667
223.447	0.0783333
222.935	0.07
222.424	0.08
221.912	0.0783333
221.4	0.0766667
220.888	0.08
220.376	0.0816667
219.864	0.0733333
219.353	0.08
218.841	0.0666667
218.329	0.0733333
217.817	0.0816667
217.305	0.08
216.793	0.085
216.28	0.0766667
215.768	0.0733333
215.256	0.08
214.744	0.0783333
214.232	0.0716667
213.72	0.075
213.207	0.0766667
212.695	0.0733333
212.183	0.0733333
211.67	0.075
211.158	0.0783333
210.646	0.07
210.133	0.0783333
209.621	0.0816667
209.108	0.0733333
208.596	0.0866667
208.081	0.08
207.568	0.0833333
207.056	0.0666667
206.543	0.0783333
206.031	0.08
205.518	0.0783333
205.005	0.0733333
204.492	0.0733333
203.98	0.08
203.465	0.0733333
202.952	0.075
202.439	0.0883333
201.926	0.075
201.413	0.0833333
200.9	0.085
200.387	0.0883333
199.872	0.0883333
199.359	0.0766667
198.846	0.0883333
198.333	0.0883333
197.82	0.0883333
197.305	0.0983333
196.792	0.0816667
196.278	0.09
195.765	0.0783333
195.252	0.0816667
194.736	0.07
194.223	0.0866667
193.71	0.09
193.196	0.0833333
192.681	0.0916667
192.167	0.0783333
191.654	0.0766667
191.141	0.09
190.625	0.0916667
190.111	0.085
189.598	0.0833333
189.082	0.085
188.569	0.0916667
188.055	0.0883333
187.541	0.1
187.025	0.0966667
186.512	0.0883333
185.998	0.0883333
185.482	0.0783333
184.968	0.08
184.454	0.0833333
183.938	0.0783333
183.424	0.0783333
182.91	0.0833333
182.394	0.0783333
181.88	0.0816667
181.366	0.0733333
180.85	0.08
180.336	0.0816667
179.82	0.0883333
179.306	0.09
178.792	0.095
178.275	0.0816667
177.761	0.0816667
177.245	0.0783333
176.73	0.0916667
176.216	0.0866667
175.7	0.0766667
175.185	0.0783333
174.669	0.0866667
174.154	0.0933333
173.638	0.075
173.123	0.0866667
172.609	0.0766667
172.092	0.0866667
171.578	0.0883333
171.061	0.0816667
170.546	0.0783333
170.03	0.0816667
169.515	0.0833333
168.998	0.0833333
168.483	0.0783333
167.967	0.0783333
167.452	0.0866667
166.935	0.07
166.42	0.0816667
165.903	0.085
165.388	0.0833333
164.871	0.0966667
164.354	0.1
163.839	0.0966667
163.322	0.0966667
162.807	0.0816667
162.29	0.0816667
161.774	0.0966667
161.257	0.105
160.742	0.111667
160.225	0.118333
159.707	0.12
159.192	0.14
158.675	0.146667
158.159	0.143333
157.642	0.153333
157.125	0.148333
156.609	0.128333
156.092	0.128333
155.574	0.101667
155.059	0.0983333
154.541	0.0883333
154.023	0.105
153.508	0.103333
152.99	0.0916667
152.474	0.0716667
151.957	0.08
151.439	0.085
150.921	0.0783333
150.405	0.0866667
149.887	0.09
149.37	0.0916667
148.854	0.09
148.336	0.0933333
147.818	0.085
147.302	0.085
146.784	0.09
146.266	0.0833333
145.748	0.0883333
145.232	0.0883333
144.713	0.0916667
144.195	0.0933333
143.677	0.0816667
143.161	0.0933333
142.643	0.0816667
142.124	0.1
141.606	0.0966667
141.09	0.108333
140.571	0.123333
140.053	0.115
139.534	0.106667
139.016	0.085
138.5	0.095
137.981	0.0883333
137.462	0.0866667
136.944	0.09
136.425	0.09
135.907	0.085
135.39	0.0833333
134.871	0.101667
134.352	0.103333
133.834	0.0933333
133.315	0.1
132.796	0.101667
132.277	0.103333
131.76	0.111667
131.242	0.1
130.723	0.1
130.204	0.101667
129.685	0.116667
129.166	0.111667
128.647	0.11
128.127	0.0933333
127.608	0.1
127.089	0.095
126.57	0.103333
126.053	0.1
125.534	0.118333
125.014	0.123333
124.495	0.15
123.976	0.125
123.456	0.095
122.937	0.095
122.418	0.103333
121.898	0.0833333
121.379	0.095
120.859	0.0933333
120.34	0.0966667
119.82	0.103333
119.301	0.106667
118.781	0.101667
118.261	0.113333
117.742	0.11
117.222	0.131667
116.702	0.115
116.183	0.128333
115.663	0.0983333
115.143	0.1
114.623	0.101667
114.103	0.101667
113.583	0.106667
113.061	0.108333
112.541	0.105
112.021	0.116667
111.501	0.11
110.981	0.115
110.461	0.128333
109.941	0.136667
109.421	0.158333
108.901	0.185
108.381	0.191667
107.858	0.188333
107.338	0.188333
106.818	0.166667
106.297	0.168333
105.777	0.18
105.257	0.181667
104.736	0.21
104.214	0.205
103.693	0.208333
103.173	0.22
102.652	0.26
102.132	0.296667
101.611	0.348333
101.088	0.38
100.568	0.37
100.047	0.343333
99.5265	0.326667
99.0058	0.328333
98.4829	0.301667
97.9622	0.306667
97.4414	0.273333
96.9206	0.315
96.3997	0.321667
95.8767	0.293333
95.3558	0.261667
94.8348	0.256667
94.3139	0.25
93.7907	0.295
93.2697	0.3
92.7486	0.305
92.2254	0.301667
91.7043	0.27
91.1831	0.245
90.662	0.245
90.1386	0.248333
89.6174	0.245
89.0961	0.233333
88.5727	0.255
88.0514	0.218333
87.53	0.24
87.0065	0.251667
86.4851	0.278333
85.9637	0.308333
85.4401	0.313333
84.9186	0.385
84.397	0.341667
83.8733	0.29
83.3518	0.326667
82.8301	0.315
82.3064	0.331667
81.7847	0.35
81.2609	0.385
80.7391	0.37
80.2174	0.435
79.6935	0.445
79.1716	0.536667
78.6477	0.613333
78.1258	0.691667
77.6039	0.795
77.0798	0.793333
76.5578	0.836667
76.0337	0.778333
75.5117	0.795
74.9875	0.755
74.4654	0.748333
73.9412	0.703333
73.419	0.628333
72.8969	0.576667
72.3725	0.513333
71.8503	0.435
71.3259	0.405
70.8036	0.366667
70.2792	0.32
69.7568	0.33
69.2323	0.326667
68.7099	0.311667
68.1854	0.265
67.6629	0.258333
67.1383	0.24
66.6136	0.228333
66.0911	0.21
65.5664	0.22
65.0437	0.208333
64.519	0.208333
63.9963	0.206667
63.4715	0.22
62.9488	0.235
62.4239	0.265
61.8989	0.296667
61.3761	0.308333
60.8512	0.271667
60.3283	0.206667
59.8032	0.178333
59.2782	0.181667
58.7552	0.195
58.2301	0.23
57.7071	0.378333
57.1819	0.785
56.6567	0.673333
56.1336	0.386667
55.6083	0.245
55.083	0.208333
54.5598	0.183333
54.0344	0.215
53.509	0.21
52.9858	0.208333
52.4603	0.181667
51.9348	0.193333
51.4115	0.2
50.8859	0.221667
50.3604	0.218333
49.8369	0.195
49.3113	0.171667
48.7856	0.161667
48.2621	0.161667
47.7364	0.17
47.2106	0.18
46.6849	0.183333
46.1612	0.201667
45.6354	0.223333
45.1095	0.215
44.5836	0.183333
44.0598	0.16
43.5339	0.161667
43.0079	0.181667
42.4819	0.168333
41.958	0.161667
41.4319	0.151667
40.9058	0.168333
40.3797	0.2
39.8535	0.205
39.3295	0.23
38.8033	0.208333
38.277	0.203333
37.7508	0.213333
37.2245	0.21
36.7003	0.176667
36.1739	0.166667
35.6475	0.171667
35.1211	0.183333
34.5946	0.208333
34.0681	0.195
33.5438	0.198333
33.0172	0.191667
32.4907	0.186667
31.9641	0.19
31.4374	0.213333
30.9108	0.235
30.3841	0.258333
29.8574	0.276667
29.3306	0.281667
28.806	0.28
28.2792	0.27
27.7524	0.26
27.2255	0.325
26.6986	0.283333
26.1717	0.29
25.6447	0.296667
25.1177	0.303333
24.5907	0.288333
24.0637	0.288333
23.5366	0.26
23.0095	0.246667
22.4824	0.29
21.9552	0.283333
21.428	0.3
20.9008	0.281667
20.3735	0.286667
19.8462	0.306667
19.3189	0.35
18.7916	0.338333
18.2642	0.343333
17.7368	0.316667
17.2094	0.358333
16.6819	0.346667
16.1544	0.466667
15.6269	0.413333
15.0994	0.535
14.5718	0.555
