#Acq. time (s)=	600
#Accumulations=	2
#Range=	Off
#Autofocus=	Off
#AutoExposure=	Off
#Spike filter=	Multiple accum.
#Delay time (s)=	0
#Binning=	1
#Readout mode=	Signal
#DeNoise=	Off
#ICS correction=	Off
#Dark correction=	Off
#Inst. Process=	Off
#Detector Gain=	Best Dynamic Range
#Detector ADC=	20 kHz       
#Detector temperature (°C)=	-128.42
#Instrument=	LabRAM HR Evol
#Detector=	Synapse/Symphony II
#Objective=	x50_VIS_LWD
#Grating=	1800 (450-850nm)
#ND Filter=	25%
#Laser=	532nm_Edge
#Spectro (cm-¹)=	279.986
#Hole=	150.001
#Range=	Visible
#AFM=	Off
#Collection=	Microscope
#StageXY=	Manual stage
#StageZ=	Marzhauser
#X (µm)=	0
#Y (µm)=	0
#Z (µm)=	524.65
#Full time(mm:ss)=	20:01
#Project=	Caps
#Sample=	Caps
#Site=	Caps
#Title=	CaMn2Bi2_2
#Remark=	
#Date=	01.07.2023 17:06
#End Platform Temp (K)=	180.004
#Polarizer=	74.999796
#Analyzer=	44.999526
#Acquired=	01.07.2023 17:06:43
#AxisType[0]=Intens
#AxisUnit[0]=Cnt/sec
#AxisType[1]=Spectr
#AxisUnit[1]=1/cm
533.589	0.0566667
533.102	0.0533333
532.614	0.06
532.127	0.0583333
531.64	0.0616667
531.151	0.06
530.665	0.06
530.176	0.06
529.689	0.0566667
529.2	0.06
528.713	0.0533333
528.224	0.055
527.737	0.06
527.249	0.055
526.762	0.0516667
526.275	0.0516667
525.785	0.055
525.298	0.0566667
524.809	0.055
524.32	0.06
523.833	0.0516667
523.344	0.0466667
522.857	0.0533333
522.367	0.055
521.88	0.0616667
521.391	0.0533333
520.904	0.0583333
520.414	0.05
519.927	0.0566667
519.438	0.055
518.948	0.055
518.461	0.0616667
517.971	0.0566667
517.484	0.0616667
516.994	0.0533333
516.505	0.0616667
516.017	0.055
515.527	0.0616667
515.038	0.0616667
514.55	0.055
514.061	0.055
513.573	0.0533333
513.083	0.0533333
512.593	0.0616667
512.106	0.0616667
511.616	0.0583333
511.126	0.06
510.638	0.0533333
510.148	0.06
509.658	0.0633333
509.168	0.0583333
508.68	0.07
508.19	0.0583333
507.7	0.0566667
507.212	0.0616667
506.722	0.06
506.232	0.0733333
505.742	0.06
505.254	0.0566667
504.764	0.0616667
504.273	0.06
503.783	0.0533333
503.295	0.0483333
502.805	0.055
502.314	0.0583333
501.824	0.0566667
501.334	0.0633333
500.845	0.0633333
500.355	0.0666667
499.864	0.06
499.374	0.0566667
498.883	0.0566667
498.395	0.045
497.904	0.0583333
497.414	0.0533333
496.923	0.0616667
496.433	0.055
495.942	0.0616667
495.451	0.0533333
494.963	0.0583333
494.472	0.0666667
493.981	0.055
493.49	0.0633333
492.999	0.06
492.509	0.06
492.018	0.0633333
491.527	0.0616667
491.036	0.06
490.545	0.06
490.056	0.0533333
489.565	0.0616667
489.074	0.0533333
488.583	0.0583333
488.092	0.06
487.601	0.0583333
487.11	0.0516667
486.618	0.065
486.127	0.0616667
485.636	0.0566667
485.145	0.065
484.654	0.0616667
484.162	0.0583333
483.671	0.0633333
483.18	0.0683333
482.688	0.0633333
482.197	0.055
481.705	0.07
481.214	0.0633333
480.722	0.0616667
480.231	0.0566667
479.739	0.0633333
479.248	0.0516667
478.756	0.0533333
478.265	0.0566667
477.771	0.0533333
477.279	0.065
476.788	0.065
476.296	0.06
475.804	0.0633333
475.312	0.0666667
474.821	0.0683333
474.329	0.0666667
473.837	0.0633333
473.345	0.0633333
472.851	0.06
472.359	0.0533333
471.867	0.0583333
471.375	0.065
470.883	0.0633333
470.391	0.0616667
469.897	0.0633333
469.405	0.065
468.913	0.0716667
468.421	0.065
467.929	0.0733333
467.436	0.0816667
466.942	0.085
466.45	0.0766667
465.958	0.0816667
465.465	0.0816667
464.971	0.085
464.479	0.075
463.986	0.0833333
463.494	0.08
463.001	0.0883333
462.507	0.0816667
462.014	0.0716667
461.522	0.08
461.027	0.0766667
460.535	0.0633333
460.042	0.0733333
459.55	0.0616667
459.055	0.0633333
458.562	0.065
458.069	0.0616667
457.575	0.0616667
457.082	0.0583333
456.589	0.0666667
456.094	0.0533333
455.602	0.075
455.109	0.0566667
454.614	0.0666667
454.121	0.0616667
453.628	0.0766667
453.133	0.0616667
452.64	0.0633333
452.147	0.0683333
451.652	0.055
451.159	0.065
450.664	0.0666667
450.17	0.06
449.677	0.065
449.182	0.0616667
448.689	0.0633333
448.194	0.0566667
447.7	0.0633333
447.207	0.0616667
446.712	0.0666667
446.218	0.0583333
445.723	0.0616667
445.23	0.065
444.734	0.0566667
444.241	0.0616667
443.745	0.0533333
443.252	0.0666667
442.756	0.06
442.263	0.0533333
441.767	0.065
441.273	0.06
440.778	0.065
440.284	0.0616667
439.788	0.0633333
439.295	0.0566667
438.799	0.06
438.305	0.0533333
437.809	0.0616667
437.315	0.0633333
436.819	0.065
436.326	0.0566667
435.83	0.06
435.334	0.0583333
434.84	0.06
434.344	0.0683333
433.85	0.0616667
433.354	0.0616667
432.858	0.06
432.363	0.0633333
431.867	0.0616667
431.373	0.06
430.877	0.06
430.381	0.065
429.887	0.0616667
429.39	0.0616667
428.894	0.0616667
428.4	0.0516667
427.903	0.0616667
427.407	0.0633333
426.912	0.0616667
426.416	0.0683333
425.919	0.0616667
425.425	0.0633333
424.928	0.0583333
424.432	0.06
423.937	0.0616667
423.441	0.0616667
422.944	0.0616667
422.45	0.07
421.953	0.0583333
421.456	0.0566667
420.959	0.0633333
420.465	0.0633333
419.968	0.06
419.471	0.0666667
418.974	0.0566667
418.479	0.0683333
417.982	0.0633333
417.485	0.0616667
416.989	0.0533333
416.492	0.07
415.997	0.0583333
415.5	0.0633333
415.002	0.0683333
414.505	0.0616667
414.008	0.0583333
413.513	0.0616667
413.016	0.07
412.519	0.0666667
412.022	0.0666667
411.524	0.0566667
411.027	0.06
410.532	0.0566667
410.034	0.0616667
409.537	0.0616667
409.04	0.0633333
408.542	0.0633333
408.045	0.055
407.547	0.07
407.05	0.0633333
406.552	0.07
406.057	0.0683333
405.559	0.0666667
405.062	0.0616667
404.564	0.065
404.066	0.0666667
403.569	0.0633333
403.071	0.06
402.573	0.0683333
402.075	0.0766667
401.577	0.07
401.08	0.065
400.582	0.0683333
400.084	0.0683333
399.586	0.06
399.088	0.0616667
398.59	0.0766667
398.092	0.0616667
397.594	0.065
397.096	0.0683333
396.598	0.0683333
396.1	0.0683333
395.602	0.0533333
395.104	0.065
394.605	0.0616667
394.107	0.0583333
393.609	0.0683333
393.111	0.0716667
392.612	0.065
392.114	0.0533333
391.616	0.0566667
391.117	0.0616667
390.619	0.0633333
390.119	0.05
389.62	0.0633333
389.122	0.065
388.623	0.06
388.125	0.065
387.626	0.0616667
387.128	0.0683333
386.629	0.0633333
386.128	0.0666667
385.63	0.0633333
385.131	0.065
384.632	0.06
384.133	0.0716667
383.635	0.0616667
383.136	0.0583333
382.635	0.0616667
382.136	0.0633333
381.637	0.0666667
381.138	0.0616667
380.639	0.06
380.138	0.0633333
379.639	0.055
379.14	0.0633333
378.641	0.0583333
378.142	0.065
377.641	0.07
377.142	0.0616667
376.643	0.0683333
376.144	0.0683333
375.642	0.06
375.143	0.06
374.644	0.0516667
374.145	0.0616667
373.643	0.0683333
373.144	0.0633333
372.644	0.0683333
372.143	0.0583333
371.644	0.065
371.144	0.06
370.643	0.07
370.143	0.0716667
369.644	0.065
369.142	0.0683333
368.642	0.0633333
368.143	0.0583333
367.641	0.0633333
367.141	0.0666667
366.642	0.0683333
366.14	0.0633333
365.64	0.0583333
365.14	0.06
364.638	0.0566667
364.139	0.0683333
363.637	0.0616667
363.137	0.0683333
362.637	0.055
362.135	0.0666667
361.635	0.0666667
361.133	0.0666667
360.633	0.06
360.133	0.0683333
359.631	0.065
359.131	0.065
358.628	0.0733333
358.128	0.0616667
357.626	0.0616667
357.126	0.07
356.623	0.075
356.123	0.075
355.621	0.065
355.12	0.0666667
354.618	0.0766667
354.118	0.075
353.615	0.08
353.115	0.07
352.612	0.0683333
352.112	0.0666667
351.609	0.0666667
351.109	0.0633333
350.606	0.0766667
350.105	0.0633333
349.603	0.0683333
349.102	0.0616667
348.599	0.0616667
348.099	0.0766667
347.596	0.0666667
347.093	0.0566667
346.592	0.0666667
346.089	0.0733333
345.589	0.0633333
345.086	0.0716667
344.583	0.0783333
344.082	0.07
343.579	0.08
343.078	0.065
342.575	0.0666667
342.072	0.075
341.57	0.07
341.067	0.0666667
340.564	0.0616667
340.063	0.0616667
339.56	0.0683333
339.056	0.075
338.555	0.0783333
338.052	0.0733333
337.549	0.07
337.047	0.07
336.544	0.065
336.04	0.07
335.539	0.075
335.036	0.07
334.532	0.0683333
334.029	0.08
333.527	0.0766667
333.023	0.0683333
332.52	0.07
332.016	0.08
331.515	0.0783333
331.011	0.0766667
330.507	0.065
330.003	0.0666667
329.502	0.075
328.998	0.0666667
328.494	0.075
327.99	0.0716667
327.488	0.065
326.984	0.0733333
326.48	0.0616667
325.976	0.065
325.472	0.0883333
324.968	0.0716667
324.466	0.0766667
323.962	0.06
323.458	0.07
322.954	0.0816667
322.45	0.0716667
321.946	0.0733333
321.444	0.065
320.939	0.07
320.435	0.07
319.931	0.075
319.426	0.0683333
318.922	0.0783333
318.418	0.0733333
317.913	0.07
317.409	0.0766667
316.906	0.075
316.402	0.08
315.897	0.075
315.393	0.0733333
314.888	0.07
314.384	0.0733333
313.879	0.085
313.374	0.0633333
312.87	0.0716667
312.365	0.0733333
311.86	0.0716667
311.355	0.0716667
310.85	0.0716667
310.346	0.0766667
309.841	0.0616667
309.336	0.0733333
308.831	0.0883333
308.326	0.0716667
307.821	0.07
307.316	0.0766667
306.811	0.0716667
306.306	0.0766667
305.801	0.0666667
305.296	0.0683333
304.791	0.0783333
304.285	0.075
303.78	0.0666667
303.275	0.0783333
302.77	0.0666667
302.264	0.07
301.759	0.0766667
301.254	0.0666667
300.746	0.0633333
300.241	0.0683333
299.736	0.0683333
299.23	0.0716667
298.725	0.0883333
298.219	0.0733333
297.714	0.08
297.208	0.0683333
296.7	0.0733333
296.195	0.0666667
295.689	0.0766667
295.184	0.08
294.678	0.0733333
294.172	0.0666667
293.666	0.0766667
293.159	0.0866667
292.653	0.0733333
292.147	0.07
291.641	0.075
291.135	0.065
290.627	0.07
290.121	0.0716667
289.615	0.0683333
289.109	0.07
288.603	0.0733333
288.095	0.065
287.589	0.0766667
287.083	0.0716667
286.577	0.075
286.068	0.0633333
285.562	0.0733333
285.056	0.065
284.55	0.0766667
284.041	0.075
283.535	0.0833333
283.029	0.075
282.52	0.0616667
282.014	0.0816667
281.508	0.0733333
281.001	0.075
280.493	0.08
279.986	0.0733333
279.48	0.075
278.971	0.065
278.464	0.0716667
277.958	0.0783333
277.449	0.0766667
276.942	0.075
276.436	0.0883333
275.927	0.07
275.42	0.08
274.911	0.075
274.404	0.0783333
273.898	0.0766667
273.389	0.07
272.882	0.0816667
272.375	0.0783333
271.866	0.0733333
271.359	0.09
270.85	0.0733333
270.343	0.0733333
269.834	0.08
269.327	0.085
268.819	0.0883333
268.31	0.085
267.803	0.0783333
267.294	0.075
266.787	0.0816667
266.277	0.0816667
265.77	0.075
265.261	0.0883333
264.753	0.0883333
264.244	0.0866667
263.736	0.0783333
263.227	0.07
262.719	0.0833333
262.21	0.08
261.702	0.0833333
261.193	0.0766667
260.685	0.085
260.176	0.0766667
259.668	0.0883333
259.158	0.0766667
258.651	0.0883333
258.141	0.0733333
257.633	0.0833333
257.123	0.08
256.613	0.0833333
256.105	0.095
255.596	0.0783333
255.088	0.0883333
254.578	0.0816667
254.07	0.0783333
253.56	0.0783333
253.05	0.0766667
252.542	0.0733333
252.032	0.085
251.521	0.0816667
251.013	0.0733333
250.503	0.0816667
249.995	0.0766667
249.485	0.0616667
248.974	0.0783333
248.466	0.0783333
247.956	0.0833333
247.446	0.0833333
246.937	0.08
246.427	0.0733333
245.916	0.0783333
245.408	0.0733333
244.897	0.0833333
244.387	0.0833333
243.876	0.08
243.368	0.0816667
242.857	0.08
242.346	0.0833333
241.838	0.085
241.327	0.0816667
240.816	0.0816667
240.306	0.0833333
239.797	0.0733333
239.286	0.0783333
238.775	0.0783333
238.264	0.218333
237.756	0.191667
237.245	0.0816667
236.734	0.08
236.223	0.0933333
235.712	0.0816667
235.203	0.0766667
234.692	0.0816667
234.181	0.0766667
233.669	0.0816667
233.158	0.0766667
232.649	0.0916667
232.138	0.0883333
231.627	0.0766667
231.115	0.0733333
230.604	0.08
230.093	0.0766667
229.581	0.0733333
229.072	0.0733333
228.561	0.08
228.049	0.0783333
227.538	0.0766667
227.026	0.09
226.515	0.08
226.003	0.0916667
225.492	0.0833333
224.98	0.085
224.471	0.0716667
223.959	0.0783333
223.447	0.0733333
222.935	0.0733333
222.424	0.0716667
221.912	0.07
221.4	0.0833333
220.888	0.0883333
220.376	0.0883333
219.864	0.09
219.353	0.075
218.841	0.07
218.329	0.085
217.817	0.0866667
217.305	0.08
216.793	0.0966667
216.28	0.085
215.768	0.08
215.256	0.08
214.744	0.0783333
214.232	0.08
213.72	0.0883333
213.207	0.0833333
212.695	0.085
212.183	0.0916667
211.67	0.0816667
211.158	0.0733333
210.646	0.0833333
210.133	0.0833333
209.621	0.0866667
209.108	0.09
208.596	0.0916667
208.081	0.0916667
207.568	0.0883333
207.056	0.0916667
206.543	0.085
206.031	0.0916667
205.518	0.085
205.005	0.09
204.492	0.0916667
203.98	0.0883333
203.465	0.0816667
202.952	0.0833333
202.439	0.0933333
201.926	0.103333
201.413	0.075
200.9	0.0883333
200.387	0.0966667
199.872	0.105
199.359	0.09
198.846	0.0866667
198.333	0.0816667
197.82	0.0883333
197.305	0.095
196.792	0.095
196.278	0.106667
195.765	0.0983333
195.252	0.09
194.736	0.08
194.223	0.0966667
193.71	0.0866667
193.196	0.0883333
192.681	0.0966667
192.167	0.0866667
191.654	0.0966667
191.141	0.0833333
190.625	0.09
190.111	0.0883333
189.598	0.0866667
189.082	0.0933333
188.569	0.0883333
188.055	0.0933333
187.541	0.1
187.025	0.0933333
186.512	0.103333
185.998	0.0916667
185.482	0.0916667
184.968	0.0916667
184.454	0.085
183.938	0.0916667
183.424	0.09
182.91	0.0916667
182.394	0.0916667
181.88	0.0933333
181.366	0.085
180.85	0.085
180.336	0.0883333
179.82	0.09
179.306	0.09
178.792	0.1
178.275	0.09
177.761	0.0766667
177.245	0.085
176.73	0.0916667
176.216	0.0916667
175.7	0.095
175.185	0.0966667
174.669	0.085
174.154	0.0833333
173.638	0.075
173.123	0.0833333
172.609	0.0933333
172.092	0.103333
171.578	0.0933333
171.061	0.0983333
170.546	0.0866667
170.03	0.09
169.515	0.085
168.998	0.09
168.483	0.09
167.967	0.0766667
167.452	0.0833333
166.935	0.09
166.42	0.0966667
165.903	0.085
165.388	0.0866667
164.871	0.0916667
164.354	0.108333
163.839	0.085
163.322	0.103333
162.807	0.09
162.29	0.0933333
161.774	0.09
161.257	0.0983333
160.742	0.1
160.225	0.1
159.707	0.125
159.192	0.143333
158.675	0.155
158.159	0.156667
157.642	0.15
157.125	0.171667
156.609	0.18
156.092	0.153333
155.574	0.135
155.059	0.118333
154.541	0.108333
154.023	0.0983333
153.508	0.1
152.99	0.105
152.474	0.1
151.957	0.09
151.439	0.0916667
150.921	0.09
150.405	0.0916667
149.887	0.0866667
149.37	0.0983333
148.854	0.0933333
148.336	0.0816667
147.818	0.0916667
147.302	0.103333
146.784	0.0916667
146.266	0.0933333
145.748	0.0966667
145.232	0.09
144.713	0.0916667
144.195	0.0916667
143.677	0.0816667
143.161	0.0983333
142.643	0.095
142.124	0.0883333
141.606	0.095
141.09	0.105
140.571	0.118333
140.053	0.12
139.534	0.123333
139.016	0.105
138.5	0.0916667
137.981	0.101667
137.462	0.0933333
136.944	0.09
136.425	0.0916667
135.907	0.101667
135.39	0.1
134.871	0.0883333
134.352	0.1
133.834	0.0966667
133.315	0.11
132.796	0.113333
132.277	0.108333
131.76	0.1
131.242	0.121667
130.723	0.118333
130.204	0.13
129.685	0.118333
129.166	0.105
128.647	0.11
128.127	0.116667
127.608	0.0983333
127.089	0.0983333
126.57	0.0966667
126.053	0.118333
125.534	0.111667
125.014	0.133333
124.495	0.143333
123.976	0.126667
123.456	0.12
122.937	0.0983333
122.418	0.0916667
121.898	0.1
121.379	0.085
120.859	0.105
120.34	0.103333
119.82	0.106667
119.301	0.101667
118.781	0.118333
118.261	0.113333
117.742	0.106667
117.222	0.118333
116.702	0.133333
116.183	0.123333
115.663	0.121667
115.143	0.108333
114.623	0.11
114.103	0.108333
113.583	0.123333
113.061	0.103333
112.541	0.113333
112.021	0.111667
111.501	0.113333
110.981	0.116667
110.461	0.123333
109.941	0.13
109.421	0.16
108.901	0.183333
108.381	0.208333
107.858	0.208333
107.338	0.19
106.818	0.203333
106.297	0.193333
105.777	0.208333
105.257	0.211667
104.736	0.213333
104.214	0.223333
103.693	0.24
103.173	0.26
102.652	0.278333
102.132	0.333333
101.611	0.345
101.088	0.385
100.568	0.418333
100.047	0.386667
99.5265	0.366667
99.0058	0.346667
98.4829	0.353333
97.9622	0.326667
97.4414	0.28
96.9206	0.291667
96.3997	0.306667
95.8767	0.293333
95.3558	0.273333
94.8348	0.275
94.3139	0.258333
93.7907	0.315
93.2697	0.361667
92.7486	0.44
92.2254	0.448333
91.7043	0.386667
91.1831	0.305
90.662	0.27
90.1386	0.245
89.6174	0.23
89.0961	0.233333
88.5727	0.238333
88.0514	0.218333
87.53	0.208333
87.0065	0.23
86.4851	0.236667
85.9637	0.258333
85.4401	0.295
84.9186	0.3
84.397	0.298333
83.8733	0.27
83.3518	0.228333
82.8301	0.235
82.3064	0.235
81.7847	0.236667
81.2609	0.261667
80.7391	0.253333
80.2174	0.265
79.6935	0.271667
79.1716	0.29
78.6477	0.27
78.1258	0.315
77.6039	0.345
77.0798	0.398333
76.5578	0.356667
76.0337	0.346667
75.5117	0.293333
74.9875	0.303333
74.4654	0.281667
73.9412	0.308333
73.419	0.308333
72.8969	0.293333
72.3725	0.246667
71.8503	0.208333
71.3259	0.213333
70.8036	0.228333
70.2792	0.21
69.7568	0.235
69.2323	0.233333
68.7099	0.226667
68.1854	0.203333
67.6629	0.191667
67.1383	0.178333
66.6136	0.19
66.0911	0.178333
65.5664	0.178333
65.0437	0.171667
64.519	0.176667
63.9963	0.18
63.4715	0.171667
62.9488	0.201667
62.4239	0.231667
61.8989	0.305
61.3761	0.298333
60.8512	0.271667
60.3283	0.231667
59.8032	0.2
59.2782	0.176667
58.7552	0.148333
58.2301	0.181667
57.7071	0.206667
57.1819	0.338333
56.6567	0.443333
56.1336	0.32
55.6083	0.218333
55.083	0.188333
54.5598	0.19
54.0344	0.205
53.509	0.206667
52.9858	0.196667
52.4603	0.198333
51.9348	0.175
51.4115	0.181667
50.8859	0.213333
50.3604	0.221667
49.8369	0.218333
49.3113	0.195
48.7856	0.176667
48.2621	0.163333
47.7364	0.18
47.2106	0.16
46.6849	0.18
46.1612	0.195
45.6354	0.22
45.1095	0.211667
44.5836	0.19
44.0598	0.168333
43.5339	0.178333
43.0079	0.17
42.4819	0.178333
41.958	0.165
41.4319	0.17
40.9058	0.141667
40.3797	0.183333
39.8535	0.215
39.3295	0.215
38.8033	0.203333
38.277	0.225
37.7508	0.185
37.2245	0.208333
36.7003	0.178333
36.1739	0.161667
35.6475	0.176667
35.1211	0.173333
34.5946	0.163333
34.0681	0.178333
33.5438	0.178333
33.0172	0.171667
32.4907	0.173333
31.9641	0.171667
31.4374	0.185
30.9108	0.216667
30.3841	0.248333
29.8574	0.268333
29.3306	0.321667
28.806	0.308333
28.2792	0.27
27.7524	0.268333
27.2255	0.286667
26.6986	0.295
26.1717	0.276667
25.6447	0.286667
25.1177	0.281667
24.5907	0.265
24.0637	0.265
23.5366	0.251667
23.0095	0.238333
22.4824	0.253333
21.9552	0.263333
21.428	0.256667
20.9008	0.271667
20.3735	0.25
19.8462	0.295
19.3189	0.34
18.7916	0.336667
18.2642	0.303333
17.7368	0.301667
17.2094	0.331667
16.6819	0.318333
16.1544	0.401667
15.6269	0.413333
15.0994	0.436667
14.5718	0.54
