#Acq. time (s)=	600
#Accumulations=	2
#Range=	Off
#Autofocus=	Off
#AutoExposure=	Off
#Spike filter=	Multiple accum.
#Delay time (s)=	0
#Binning=	1
#Readout mode=	Signal
#DeNoise=	Off
#ICS correction=	Off
#Dark correction=	Off
#Inst. Process=	Off
#Detector Gain=	Best Dynamic Range
#Detector ADC=	20 kHz       
#Detector temperature (°C)=	-128.59
#Instrument=	LabRAM HR Evol
#Detector=	Synapse/Symphony II
#Objective=	x50_VIS_LWD
#Grating=	1800 (450-850nm)
#ND Filter=	25%
#Laser=	532nm_Edge
#Spectro (cm-¹)=	279.986
#Hole=	150.001
#Range=	Visible
#AFM=	Off
#Collection=	Microscope
#StageXY=	Manual stage
#StageZ=	Marzhauser
#X (µm)=	0
#Y (µm)=	0
#Z (µm)=	524.65
#Full time(mm:ss)=	20:01
#Project=	Caps
#Sample=	Caps
#Site=	Caps
#Title=	CaMn2Bi2_12
#Remark=	
#Date=	30.06.2023 15:54
#End Platform Temp (K)=	29.998
#Polarizer=	69.998286
#Analyzer=	44.999526
#Acquired=	30.06.2023 15:54:18
#AxisType[0]=Intens
#AxisUnit[0]=Cnt/sec
#AxisType[1]=Spectr
#AxisUnit[1]=1/cm
533.589	0.0416667
533.102	0.0316667
532.614	0.0383333
532.127	0.0416667
531.64	0.0466667
531.151	0.0433333
530.665	0.045
530.176	0.0433333
529.689	0.0433333
529.2	0.04
528.713	0.035
528.224	0.0433333
527.737	0.0383333
527.249	0.0383333
526.762	0.04
526.275	0.0333333
525.785	0.04
525.298	0.0383333
524.809	0.0433333
524.32	0.0383333
523.833	0.0383333
523.344	0.0333333
522.857	0.0433333
522.367	0.0383333
521.88	0.0416667
521.391	0.0433333
520.904	0.0366667
520.414	0.0416667
519.927	0.0416667
519.438	0.0466667
518.948	0.04
518.461	0.045
517.971	0.0383333
517.484	0.0383333
516.994	0.0383333
516.505	0.0433333
516.017	0.0383333
515.527	0.0466667
515.038	0.04
514.55	0.0433333
514.061	0.0366667
513.573	0.045
513.083	0.0416667
512.593	0.05
512.106	0.0383333
511.616	0.0416667
511.126	0.0383333
510.638	0.0383333
510.148	0.0416667
509.658	0.045
509.168	0.0416667
508.68	0.0416667
508.19	0.0433333
507.7	0.0433333
507.212	0.0416667
506.722	0.04
506.232	0.04
505.742	0.0466667
505.254	0.04
504.764	0.0416667
504.273	0.0416667
503.783	0.045
503.295	0.035
502.805	0.05
502.314	0.0333333
501.824	0.0366667
501.334	0.0316667
500.845	0.0366667
500.355	0.04
499.864	0.04
499.374	0.04
498.883	0.0366667
498.395	0.04
497.904	0.03
497.414	0.0383333
496.923	0.04
496.433	0.04
495.942	0.045
495.451	0.0383333
494.963	0.0466667
494.472	0.0416667
493.981	0.045
493.49	0.04
492.999	0.0333333
492.509	0.0366667
492.018	0.0466667
491.527	0.0433333
491.036	0.04
490.545	0.04
490.056	0.0416667
489.565	0.04
489.074	0.0366667
488.583	0.045
488.092	0.0383333
487.601	0.04
487.11	0.0416667
486.618	0.035
486.127	0.0316667
485.636	0.0416667
485.145	0.0416667
484.654	0.045
484.162	0.0433333
483.671	0.04
483.18	0.0416667
482.688	0.0466667
482.197	0.0383333
481.705	0.0383333
481.214	0.04
480.722	0.04
480.231	0.0483333
479.739	0.035
479.248	0.04
478.756	0.0383333
478.265	0.0416667
477.771	0.035
477.279	0.0416667
476.788	0.0433333
476.296	0.04
475.804	0.04
475.312	0.0416667
474.821	0.045
474.329	0.0483333
473.837	0.0483333
473.345	0.05
472.851	0.045
472.359	0.0433333
471.867	0.0466667
471.375	0.0466667
470.883	0.0433333
470.391	0.055
469.897	0.0566667
469.405	0.0533333
468.913	0.0566667
468.421	0.0583333
467.929	0.055
467.436	0.065
466.942	0.07
466.45	0.06
465.958	0.0633333
465.465	0.075
464.971	0.0766667
464.479	0.07
463.986	0.07
463.494	0.075
463.001	0.07
462.507	0.065
462.014	0.0716667
461.522	0.0716667
461.027	0.055
460.535	0.065
460.042	0.0616667
459.55	0.0516667
459.055	0.0466667
458.562	0.05
458.069	0.0516667
457.575	0.045
457.082	0.04
456.589	0.0416667
456.094	0.0533333
455.602	0.0516667
455.109	0.05
454.614	0.0433333
454.121	0.0433333
453.628	0.0433333
453.133	0.0433333
452.64	0.035
452.147	0.0533333
451.652	0.0416667
451.159	0.035
450.664	0.0466667
450.17	0.0416667
449.677	0.0433333
449.182	0.0433333
448.689	0.045
448.194	0.0383333
447.7	0.04
447.207	0.0383333
446.712	0.0333333
446.218	0.0383333
445.723	0.04
445.23	0.0466667
444.734	0.0383333
444.241	0.0466667
443.745	0.0416667
443.252	0.0416667
442.756	0.0416667
442.263	0.0466667
441.767	0.0466667
441.273	0.0433333
440.778	0.045
440.284	0.0466667
439.788	0.05
439.295	0.0516667
438.799	0.045
438.305	0.0483333
437.809	0.0416667
437.315	0.055
436.819	0.0466667
436.326	0.045
435.83	0.0516667
435.334	0.05
434.84	0.0483333
434.344	0.0433333
433.85	0.05
433.354	0.0533333
432.858	0.055
432.363	0.0533333
431.867	0.0616667
431.373	0.0566667
430.877	0.045
430.381	0.05
429.887	0.055
429.39	0.0483333
428.894	0.0583333
428.4	0.05
427.903	0.0466667
427.407	0.0533333
426.912	0.055
426.416	0.05
425.919	0.055
425.425	0.05
424.928	0.05
424.432	0.055
423.937	0.06
423.441	0.0566667
422.944	0.0583333
422.45	0.0566667
421.953	0.0483333
421.456	0.0583333
420.959	0.0633333
420.465	0.0566667
419.968	0.0533333
419.471	0.0566667
418.974	0.0533333
418.479	0.0533333
417.982	0.0616667
417.485	0.055
416.989	0.0516667
416.492	0.045
415.997	0.0666667
415.5	0.0666667
415.002	0.0616667
414.505	0.05
414.008	0.0566667
413.513	0.0466667
413.016	0.0533333
412.519	0.0533333
412.022	0.0483333
411.524	0.055
411.027	0.0516667
410.532	0.0616667
410.034	0.055
409.537	0.0533333
409.04	0.0516667
408.542	0.0583333
408.045	0.0433333
407.547	0.055
407.05	0.0633333
406.552	0.0466667
406.057	0.0533333
405.559	0.0616667
405.062	0.0516667
404.564	0.0516667
404.066	0.0583333
403.569	0.0533333
403.071	0.0516667
402.573	0.06
402.075	0.0566667
401.577	0.065
401.08	0.0566667
400.582	0.0466667
400.084	0.055
399.586	0.0583333
399.088	0.0566667
398.59	0.0566667
398.092	0.0533333
397.594	0.05
397.096	0.0533333
396.598	0.0583333
396.1	0.0566667
395.602	0.0516667
395.104	0.0683333
394.605	0.0466667
394.107	0.055
393.609	0.045
393.111	0.0516667
392.612	0.0483333
392.114	0.0616667
391.616	0.055
391.117	0.0583333
390.619	0.055
390.119	0.0516667
389.62	0.06
389.122	0.0466667
388.623	0.06
388.125	0.0683333
387.626	0.05
387.128	0.0583333
386.629	0.0566667
386.128	0.0566667
385.63	0.0533333
385.131	0.0583333
384.632	0.0516667
384.133	0.0616667
383.635	0.0483333
383.136	0.0583333
382.635	0.0616667
382.136	0.0566667
381.637	0.06
381.138	0.055
380.639	0.0516667
380.138	0.045
379.639	0.0566667
379.14	0.055
378.641	0.0533333
378.142	0.0516667
377.641	0.055
377.142	0.05
376.643	0.0483333
376.144	0.0433333
375.642	0.0616667
375.143	0.0533333
374.644	0.0466667
374.145	0.05
373.643	0.0466667
373.144	0.0566667
372.644	0.0616667
372.143	0.0583333
371.644	0.0533333
371.144	0.0566667
370.643	0.055
370.143	0.0583333
369.644	0.0633333
369.142	0.0566667
368.642	0.0616667
368.143	0.0616667
367.641	0.0583333
367.141	0.0583333
366.642	0.0516667
366.14	0.0566667
365.64	0.0583333
365.14	0.0533333
364.638	0.05
364.139	0.06
363.637	0.0466667
363.137	0.0633333
362.637	0.0566667
362.135	0.0633333
361.635	0.06
361.133	0.0616667
360.633	0.0533333
360.133	0.065
359.631	0.0533333
359.131	0.0516667
358.628	0.06
358.128	0.065
357.626	0.0583333
357.126	0.06
356.623	0.055
356.123	0.0583333
355.621	0.0683333
355.12	0.0616667
354.618	0.0616667
354.118	0.0616667
353.615	0.07
353.115	0.0566667
352.612	0.065
352.112	0.0633333
351.609	0.0666667
351.109	0.0633333
350.606	0.06
350.105	0.07
349.603	0.0566667
349.102	0.0516667
348.599	0.0516667
348.099	0.0616667
347.596	0.06
347.093	0.0533333
346.592	0.0583333
346.089	0.0633333
345.589	0.065
345.086	0.0633333
344.583	0.0683333
344.082	0.05
343.579	0.0633333
343.078	0.0583333
342.575	0.0633333
342.072	0.07
341.57	0.0666667
341.067	0.0566667
340.564	0.0616667
340.063	0.0616667
339.56	0.0533333
339.056	0.07
338.555	0.07
338.052	0.0616667
337.549	0.0633333
337.047	0.0566667
336.544	0.07
336.04	0.0683333
335.539	0.0616667
335.036	0.0633333
334.532	0.075
334.029	0.065
333.527	0.0533333
333.023	0.0766667
332.52	0.065
332.016	0.0616667
331.515	0.0583333
331.011	0.0683333
330.507	0.0666667
330.003	0.0733333
329.502	0.0733333
328.998	0.065
328.494	0.0783333
327.99	0.0633333
327.488	0.0733333
326.984	0.0783333
326.48	0.075
325.976	0.0666667
325.472	0.0733333
324.968	0.0733333
324.466	0.075
323.962	0.08
323.458	0.0683333
322.954	0.075
322.45	0.0716667
321.946	0.07
321.444	0.0633333
320.939	0.065
320.435	0.0666667
319.931	0.0716667
319.426	0.0733333
318.922	0.0683333
318.418	0.0633333
317.913	0.07
317.409	0.0666667
316.906	0.0766667
316.402	0.0616667
315.897	0.0633333
315.393	0.07
314.888	0.0633333
314.384	0.065
313.879	0.0683333
313.374	0.0716667
312.87	0.0666667
312.365	0.0733333
311.86	0.075
311.355	0.065
310.85	0.07
310.346	0.0666667
309.841	0.065
309.336	0.0783333
308.831	0.065
308.326	0.0733333
307.821	0.0616667
307.316	0.0716667
306.811	0.065
306.306	0.0733333
305.801	0.0583333
305.296	0.06
304.791	0.075
304.285	0.0666667
303.78	0.0666667
303.275	0.075
302.77	0.08
302.264	0.075
301.759	0.07
301.254	0.0716667
300.746	0.0783333
300.241	0.075
299.736	0.07
299.23	0.0783333
298.725	0.0816667
298.219	0.08
297.714	0.0783333
297.208	0.0783333
296.7	0.075
296.195	0.0716667
295.689	0.0633333
295.184	0.08
294.678	0.0766667
294.172	0.0716667
293.666	0.0716667
293.159	0.0783333
292.653	0.0783333
292.147	0.0733333
291.641	0.06
291.135	0.07
290.627	0.0616667
290.121	0.0583333
289.615	0.0716667
289.109	0.0666667
288.603	0.07
288.095	0.0683333
287.589	0.06
287.083	0.0683333
286.577	0.0683333
286.068	0.0566667
285.562	0.0566667
285.056	0.0616667
284.55	0.0683333
284.041	0.0616667
283.535	0.0566667
283.029	0.0733333
282.52	0.06
282.014	0.065
281.508	0.0633333
281.001	0.065
280.493	0.065
279.986	0.0616667
279.48	0.065
278.971	0.0666667
278.464	0.0683333
277.958	0.0616667
277.449	0.0566667
276.942	0.0683333
276.436	0.0633333
275.927	0.065
275.42	0.0666667
274.911	0.0616667
274.404	0.065
273.898	0.07
273.389	0.0583333
272.882	0.0666667
272.375	0.065
271.866	0.06
271.359	0.065
270.85	0.0666667
270.343	0.0666667
269.834	0.0583333
269.327	0.07
268.819	0.06
268.31	0.0683333
267.803	0.0533333
267.294	0.055
266.787	0.0666667
266.277	0.07
265.77	0.0533333
265.261	0.075
264.753	0.0533333
264.244	0.055
263.736	0.0666667
263.227	0.0633333
262.719	0.0666667
262.21	0.0616667
261.702	0.0666667
261.193	0.065
260.685	0.0616667
260.176	0.0666667
259.668	0.0633333
259.158	0.0616667
258.651	0.07
258.141	0.0683333
257.633	0.0616667
257.123	0.0616667
256.613	0.0566667
256.105	0.0633333
255.596	0.0616667
255.088	0.065
254.578	0.055
254.07	0.0583333
253.56	0.0616667
253.05	0.0616667
252.542	0.065
252.032	0.0733333
251.521	0.0666667
251.013	0.055
250.503	0.0566667
249.995	0.065
249.485	0.05
248.974	0.0583333
248.466	0.0533333
247.956	0.0533333
247.446	0.0583333
246.937	0.0566667
246.427	0.06
245.916	0.0583333
245.408	0.05
244.897	0.055
244.387	0.06
243.876	0.0633333
243.368	0.0616667
242.857	0.055
242.346	0.065
241.838	0.0566667
241.327	0.0533333
240.816	0.0616667
240.306	0.065
239.797	0.06
239.286	0.06
238.775	0.0583333
238.264	0.0683333
237.756	0.06
237.245	0.065
236.734	0.0583333
236.223	0.055
235.712	0.0633333
235.203	0.0483333
234.692	0.0533333
234.181	0.0566667
233.669	0.05
233.158	0.0533333
232.649	0.06
232.138	0.0533333
231.627	0.0566667
231.115	0.0666667
230.604	0.0566667
230.093	0.065
229.581	0.0616667
229.072	0.06
228.561	0.0583333
228.049	0.0633333
227.538	0.0633333
227.026	0.0533333
226.515	0.0583333
226.003	0.055
225.492	0.0583333
224.98	0.055
224.471	0.055
223.959	0.0583333
223.447	0.0583333
222.935	0.0583333
222.424	0.0583333
221.912	0.055
221.4	0.0516667
220.888	0.0583333
220.376	0.0616667
219.864	0.0633333
219.353	0.0683333
218.841	0.0583333
218.329	0.06
217.817	0.06
217.305	0.0666667
216.793	0.06
216.28	0.0566667
215.768	0.0566667
215.256	0.0616667
214.744	0.0666667
214.232	0.0566667
213.72	0.065
213.207	0.0633333
212.695	0.0533333
212.183	0.0616667
211.67	0.055
211.158	0.0666667
210.646	0.0616667
210.133	0.0633333
209.621	0.065
209.108	0.0683333
208.596	0.0716667
208.081	0.0716667
207.568	0.0616667
207.056	0.055
206.543	0.0633333
206.031	0.0666667
205.518	0.0633333
205.005	0.065
204.492	0.0666667
203.98	0.06
203.465	0.0733333
202.952	0.0716667
202.439	0.0616667
201.926	0.0666667
201.413	0.075
200.9	0.06
200.387	0.0716667
199.872	0.0683333
199.359	0.06
198.846	0.0583333
198.333	0.055
197.82	0.0533333
197.305	0.0666667
196.792	0.0633333
196.278	0.065
195.765	0.0633333
195.252	0.065
194.736	0.0666667
194.223	0.07
193.71	0.0716667
193.196	0.0616667
192.681	0.0666667
192.167	0.0666667
191.654	0.0683333
191.141	0.0633333
190.625	0.0633333
190.111	0.065
189.598	0.0583333
189.082	0.0583333
188.569	0.0583333
188.055	0.0716667
187.541	0.0666667
187.025	0.06
186.512	0.055
185.998	0.0533333
185.482	0.0566667
184.968	0.0616667
184.454	0.055
183.938	0.0566667
183.424	0.05
182.91	0.055
182.394	0.0533333
181.88	0.0616667
181.366	0.0583333
180.85	0.0533333
180.336	0.055
179.82	0.055
179.306	0.0616667
178.792	0.06
178.275	0.0616667
177.761	0.06
177.245	0.0616667
176.73	0.0483333
176.216	0.0533333
175.7	0.0583333
175.185	0.0533333
174.669	0.05
174.154	0.05
173.638	0.05
173.123	0.06
172.609	0.0583333
172.092	0.0666667
171.578	0.0633333
171.061	0.0683333
170.546	0.0583333
170.03	0.0516667
169.515	0.0616667
168.998	0.055
168.483	0.05
167.967	0.0483333
167.452	0.05
166.935	0.0533333
166.42	0.0483333
165.903	0.0466667
165.388	0.055
164.871	0.0583333
164.354	0.06
163.839	0.0683333
163.322	0.0583333
162.807	0.06
162.29	0.0583333
161.774	0.0766667
161.257	0.108333
160.742	0.163333
160.225	0.113333
159.707	0.0833333
159.192	0.0816667
158.675	0.135
158.159	0.236667
157.642	0.2
157.125	0.111667
156.609	0.0733333
156.092	0.0683333
155.574	0.065
155.059	0.0516667
154.541	0.0583333
154.023	0.0633333
153.508	0.0616667
152.99	0.0583333
152.474	0.0666667
151.957	0.06
151.439	0.0616667
150.921	0.0566667
150.405	0.06
149.887	0.0533333
149.37	0.0666667
148.854	0.0683333
148.336	0.07
147.818	0.0833333
147.302	0.0616667
146.784	0.05
146.266	0.0533333
145.748	0.0616667
145.232	0.0566667
144.713	0.0483333
144.195	0.06
143.677	0.055
143.161	0.0583333
142.643	0.06
142.124	0.0716667
141.606	0.0766667
141.09	0.0816667
140.571	0.0866667
140.053	0.085
139.534	0.0816667
139.016	0.065
138.5	0.0583333
137.981	0.0616667
137.462	0.0516667
136.944	0.0583333
136.425	0.06
135.907	0.0583333
135.39	0.0533333
134.871	0.0583333
134.352	0.065
133.834	0.0566667
133.315	0.0666667
132.796	0.0683333
132.277	0.07
131.76	0.085
131.242	0.0766667
130.723	0.0783333
130.204	0.0866667
129.685	0.0783333
129.166	0.0683333
128.647	0.075
128.127	0.0683333
127.608	0.0583333
127.089	0.0583333
126.57	0.07
126.053	0.075
125.534	0.0933333
125.014	0.0916667
124.495	0.0966667
123.976	0.09
123.456	0.08
122.937	0.0716667
122.418	0.0516667
121.898	0.065
121.379	0.06
120.859	0.06
120.34	0.065
119.82	0.0816667
119.301	0.0766667
118.781	0.08
118.261	0.0783333
117.742	0.08
117.222	0.0816667
116.702	0.08
116.183	0.0966667
115.663	0.0733333
115.143	0.07
114.623	0.0783333
114.103	0.0833333
113.583	0.0766667
113.061	0.07
112.541	0.0883333
112.021	0.09
111.501	0.08
110.981	0.101667
110.461	0.103333
109.941	0.125
109.421	0.148333
108.901	0.17
108.381	0.196667
107.858	0.19
107.338	0.203333
106.818	0.193333
106.297	0.19
105.777	0.216667
105.257	0.22
104.736	0.253333
104.214	0.265
103.693	0.266667
103.173	0.265
102.652	0.241667
102.132	0.245
101.611	0.236667
101.088	0.225
100.568	0.221667
100.047	0.188333
99.5265	0.178333
99.0058	0.165
98.4829	0.165
97.9622	0.145
97.4414	0.15
96.9206	0.18
96.3997	0.195
95.8767	0.185
95.3558	0.166667
94.8348	0.146667
94.3139	0.173333
93.7907	0.341667
93.2697	0.361667
92.7486	0.248333
92.2254	0.201667
91.7043	0.18
91.1831	0.171667
90.662	0.143333
90.1386	0.143333
89.6174	0.153333
89.0961	0.163333
88.5727	0.161667
88.0514	0.146667
87.53	0.151667
87.0065	0.141667
86.4851	0.173333
85.9637	0.165
85.4401	0.206667
84.9186	0.246667
84.397	0.233333
83.8733	0.196667
83.3518	0.161667
82.8301	0.156667
82.3064	0.173333
81.7847	0.186667
81.2609	0.175
80.7391	0.201667
80.2174	0.22
79.6935	0.246667
79.1716	0.285
78.6477	0.338333
78.1258	0.33
77.6039	0.341667
77.0798	0.361667
76.5578	0.335
76.0337	0.321667
75.5117	0.26
74.9875	0.243333
74.4654	0.235
73.9412	0.256667
73.419	0.253333
72.8969	0.225
72.3725	0.173333
71.8503	0.16
71.3259	0.146667
70.8036	0.126667
70.2792	0.138333
69.7568	0.158333
69.2323	0.161667
68.7099	0.145
68.1854	0.13
67.6629	0.116667
67.1383	0.103333
66.6136	0.113333
66.0911	0.103333
65.5664	0.121667
65.0437	0.111667
64.519	0.11
63.9963	0.115
63.4715	0.113333
62.9488	0.116667
62.4239	0.161667
61.8989	0.208333
61.3761	0.231667
60.8512	0.2
60.3283	0.163333
59.8032	0.125
59.2782	0.1
58.7552	0.115
58.2301	0.138333
57.7071	0.358333
57.1819	0.49
56.6567	0.233333
56.1336	0.161667
55.6083	0.125
55.083	0.101667
54.5598	0.128333
54.0344	0.145
53.509	0.161667
52.9858	0.145
52.4603	0.148333
51.9348	0.131667
51.4115	0.146667
50.8859	0.161667
50.3604	0.183333
49.8369	0.151667
49.3113	0.138333
48.7856	0.128333
48.2621	0.13
47.7364	0.121667
47.2106	0.12
46.6849	0.131667
46.1612	0.155
45.6354	0.153333
45.1095	0.166667
44.5836	0.155
44.0598	0.131667
43.5339	0.145
43.0079	0.128333
42.4819	0.145
41.958	0.128333
41.4319	0.121667
40.9058	0.12
40.3797	0.148333
39.8535	0.168333
39.3295	0.18
38.8033	0.19
38.277	0.53
37.7508	0.166667
37.2245	0.178333
36.7003	0.146667
36.1739	0.138333
35.6475	0.138333
35.1211	0.141667
34.5946	0.155
34.0681	0.145
33.5438	0.175
33.0172	0.161667
32.4907	0.17
31.9641	0.155
31.4374	0.178333
30.9108	0.186667
30.3841	0.213333
29.8574	0.251667
29.3306	0.286667
28.806	0.25
28.2792	0.248333
27.7524	0.256667
27.2255	0.273333
26.6986	0.246667
26.1717	0.271667
25.6447	0.283333
25.1177	0.263333
24.5907	0.245
24.0637	0.301667
23.5366	0.256667
23.0095	0.24
22.4824	0.271667
21.9552	0.246667
21.428	0.281667
20.9008	0.275
20.3735	0.271667
19.8462	0.301667
19.3189	0.305
18.7916	0.291667
18.2642	0.28
17.7368	0.306667
17.2094	0.333333
16.6819	0.341667
16.1544	0.393333
15.6269	0.43
15.0994	0.443333
14.5718	0.466667
